

Sample:                                                                 
Filename: C:\Users\Dusan\Desktop\Deimos\\Au_d3_ARMS.chn
File created or changed:   13.12.2018
No.of channels:  8050
Measurement date: 16/Nov/18     10:23
Evaluated : 15.01.2019 17:56:42
Live time: 168969.0 s   Real time: 169255.0 s    Dead time:  0.17 %
Counts total:  11875940    Input counts/sec:     70
            Satellite peaks:
s10: 0.000  s11: 0.000  s12: 0.000
d10:   2.5  d11:   4.0  d12:  10.0
s20: 0.000  s21: 0.000  s22: 0.000
d20:   0.0  d21:   0.0  d22:   0.0
base: 0.00000

            ENERGY CALIBRATION
 3.067954749864E+0000  3.623047361888E-0001  0.000000000000E+0000  0.000000000000E+0000

            FWHM CALIBRATION
 2.544801248291E+0000  6.872981941803E-0004  0.000000000000E+0000

Energy: preliminary linear calibration
FWHM: preliminary linear calibration

  channel  cherr    energy      area aerr%  fwhm chisq it left   n  lim isotope
==============================================================================
  169.070  0.002    64.323  674140.1   0.2  2.81 104.72  25  152  38  979
  173.915  0.001    66.078 1239927.1   0.1  2.81 104.72  25  152  38  980
  179.421  0.006    68.073   88165.1   0.5  2.81 104.72  25  152  38  981
  184.971  0.034    70.084   10966.3   2.7  2.82 104.72  25  152  38 1039
  198.670  0.002    75.047  514904.3   0.2  3.11 29.26  12  188  28 1147
  205.040  0.004    77.355  188531.3   0.3  3.12 29.26  12  188  28  971
  211.378  0.027    79.651   14280.7   2.0  3.12 29.26  12  188  28  972
  263.760  0.008    98.629   47720.6   1.0  2.70  1.03  17  247  28  616
  349.778  0.059   129.794    5174.7   6.0  2.91  1.44  38  333  40  665
  355.753  0.207   131.959    1426.2  13.7  2.92  1.44  38  333  40  666
  360.806  0.153   133.790    1969.8  10.8  2.92  1.44  38  333  40  678
  365.657  0.361   135.547     828.3  24.6  2.93  1.44  38  333  40  679
  795.406  0.428   291.247     427.1  26.3  3.10  0.82  31  785  56  427
  803.027  0.019   294.008   13214.2   2.0  3.11  0.82  31  785  56  416
  808.078  0.426   295.839     459.4  23.0  3.11  0.82  31  785  56  417
  822.852  0.223   301.191     814.2  12.9  3.12  0.82  31  785  56  406
  899.508  0.006   328.964   70456.8   0.4  3.20 13.31  22  891  28  397
  911.995  0.002   333.488  537882.8   0.2  3.20 13.31  22  891  28  398
  974.683  0.001   356.200 1985321.7   0.1  3.27 46.56  11  957  35  396
 1000.132  0.095   365.421    1508.3  10.2  3.23  1.44  32  995  16  312
 1079.046  0.196   394.011     671.6  10.3  3.45  0.64  18 1060  54  257
 1084.332  0.153   395.927     874.5   8.1  3.45  0.64  18 1060  54  266
 1091.716  0.051   398.602    3546.3   3.2  3.46  0.64  18 1060  54  266
 1096.466  0.031   400.323    6445.8   2.5  3.46  0.64  18 1060  54  266
 1121.184  0.063   409.278    2454.3   3.9  3.39 20.89  30 1115  20  252
 1129.574  0.002   412.318  411475.5   0.2  3.39 20.89  30 1115  20  252
 1154.341  0.019   421.291   13329.8   1.1  3.43  8.67  25 1135  41  235
 1159.145  0.013   423.032   23045.9   0.8  3.43  8.67  25 1135  41  236
 1168.661  0.004   426.479  130242.8   0.4  3.44  8.67  25 1135  41  217
 1183.467  0.021   431.843   10135.7   1.7  3.79  1.24  15 1174  31  202
 1189.698  0.048   434.101    3008.5   2.7  3.79  1.24  15 1174  31  202
 1325.668  0.091   483.364     880.2   8.8  3.31  0.83  13 1307  35  140
 1403.455  0.060   511.546    5491.1   2.8  7.14  0.90  15 1385  37  303
 1431.657  0.120   521.764     600.2   8.8  3.30  1.23  36 1414  55  143
 1452.440  0.095   529.294    1127.4   7.1  3.31  1.23  36 1414  55  139
 1456.146  0.205   530.637     486.7  12.1  3.31  1.23  36 1414  55  139
 1603.063  0.304   583.865     247.3  19.8  4.13  1.25  17 1584  64  135
 1631.642  0.341   594.220     228.7  20.2  4.15  1.25  17 1584  64  135
 1658.897  0.711   604.094     101.1  50.2  4.32  1.57  40 1656  32  142
 1669.189  0.484   607.823     212.3  20.3  4.32  1.57  40 1656  32  142
 1674.712  0.153   609.824     652.5  10.8  4.33  1.57  40 1656  32  142
 1709.324  0.061   622.364    1736.9   4.9  4.15  0.82  13 1690  35  120
 1769.032  0.878   643.997      97.1  37.1  3.91  0.63  25 1754  36  119
 1773.881  0.085   645.753    1247.0   6.5  3.91  0.63  25 1754  36  120
 1858.500  0.046   676.411    2153.0   4.1  3.83  1.13  12 1839  31  111
 1893.761  0.015   689.186   15280.0   1.3  3.95  0.84  11 1874  31  116
 1935.256  0.288   704.220     264.5  20.3  4.58  0.89  15 1915  37  129
 2073.942  0.726   754.467     104.6  29.0  4.28  1.11  41 2055  37  108
 2078.858  0.348   756.248     227.8  15.9  4.29  1.11  41 2055  37  108
 2086.263  0.117   758.931     666.5   9.2  4.29  1.11  41 2055  37  108
 2507.444  0.337   911.527     167.0  20.7  4.21  0.99  13 2486  73  100
 2546.289  0.307   925.600     181.9  20.1  4.24  0.99  13 2486  73   98
 2583.748  0.157   939.172     479.1   7.8  4.60  0.92  13 2563  68  107
 2610.436  0.089   948.841     996.3   5.9  4.62  0.92  13 2563  68  104
 2859.004  0.517  1038.899     142.6  20.3  5.46  0.83  41 2839  67  111
 2886.965  0.223  1049.029     373.9  12.9  5.47  0.83  41 2839  67  116
 2994.622  0.193  1088.034     332.6   8.8  4.53  1.24  24 2980  68   96
 3004.859  0.061  1091.743    1609.6   4.1  4.54  1.24  24 2980  68  105
 3039.774  0.102  1104.392     756.7   5.5  4.56  1.24  24 2980  68   96
 3084.695  0.220  1120.668     286.6  15.9  4.62  0.93  10 3063  40   98
 3168.837  0.138  1151.153     479.5  10.3  4.31  0.97  13 3147  34   89
 3236.666  0.105  1175.727     724.9   7.4  4.55  1.05  21 3214  65   94
 3258.926  0.275  1183.792     223.7  12.0  4.57  1.05  21 3214  65   94
 3356.528  0.169  1219.154     458.0  11.1  5.13  1.13  12 3336  39  103
 3689.096  0.656  1339.645     108.1  22.0  5.41  1.02  19 3673  43   96
 3696.719  0.169  1342.407     498.3   9.8  5.41  1.02  19 3673  43   96
 4023.347  0.074  1460.746    1738.4   3.4  5.36  1.07  21 3999  67   85
 4030.297  0.402  1463.264     195.5  13.2  5.36  1.07  21 3999  67   86
 4045.541  0.057  1468.787    2118.9   3.2  5.37  1.07  21 3999  67   94
 4387.191  0.158  1592.568     543.4   7.4  5.56  0.80  16 4363  46   86
 4395.092  0.158  1595.430     556.2   7.3  5.57  0.80  16 4363  46   86
 4724.513  0.248  1714.782     205.2  15.8  5.30  0.95  14 4700  47   60
 4861.221  0.171  1764.311     419.8   9.6  6.03  0.85  13 4836  42   71
 4918.715  0.442  1785.142     106.8  18.2  5.61  1.00  13 4892  70   74
 4951.607  0.242  1797.059     226.8  13.5  5.64  1.00  13 4892  70   66
 5197.451  0.117  1886.129     952.7   5.6  7.16  1.46  31 5171  40   75
 5301.289  0.166  1923.750     511.1   8.1  6.97  1.21  84 5277  41   75
 5426.827  0.339  1969.233     105.3  21.1  5.03  1.13  15 5400  47   41
 5630.866  0.107  2043.158     915.3   5.5  6.65  1.06  17 5609  38   56
 6073.183  0.256  2203.411     162.4  15.5  5.52  1.00  18 6045  55   38
 6745.241  0.416  2446.901      66.4  25.7  5.15  1.20  16 6717  45   32
 7197.061  1.201  2610.597      47.4  34.3  6.59  1.23  25 7176  51   39
 7204.939  0.162  2613.451     593.7   7.3  6.59  1.23  25 7176  51   46
