

Sample:                                                                 
Filename: D:\Robert\Deimos\Y_d1_p5.chn
File created or changed:   17.11.2018
No.of channels:  8050
Measurement date: 09/Nov/18     01:51
Evaluated : 10.12.2018 16:06:15
Live time:  7098.0 s   Real time:  7170.0 s    Dead time:  1.00 %
Counts total:   3914917    Input counts/sec:    552
            Satellite peaks:
s10: 0.000  s11: 0.000  s12: 0.000
d10:   2.5  d11:   4.0  d12:  10.0
s20: 0.000  s21: 0.000  s22: 0.000
d20:   0.0  d21:   0.0  d22:   0.0
base: 0.00000

            ENERGY CALIBRATION
-1.363481798715E+0000  5.933276231263E-0001  0.000000000000E+0000  0.000000000000E+0000

            FWHM CALIBRATION
 1.023383297645E+0000  8.993576017131E-0004  0.000000000000E+0000

Energy: preliminary linear calibration
FWHM: preliminary linear calibration

  channel  cherr    energy      area aerr%  fwhm chisq it left   n  lim isotope
==============================================================================
   95.960  0.094    55.572    1360.7   8.7  1.91  4.49  57   84  87  325
  124.934  0.020    72.763    7828.4   2.2  1.94  4.49  57   84  87  363
  128.560  0.012    74.915   14364.1   1.7  1.94  4.49  57   84  87  364
  132.201  0.066    77.075    2124.5   6.0  1.94  4.49  57   84  87  364
  145.153  0.026    84.760    6021.1   2.6  1.95  4.49  57   84  87  387
  149.550  0.053    87.368    2734.7   4.9  1.96  4.49  57   84  87  388
  404.376  0.051   238.564    2081.2  10.8  1.74  1.49  13  393  16  326
  595.367  0.045   351.884    1787.6   6.9  2.10  0.52  11  582  26  204
  644.172  0.001   380.841  526380.8   0.2  2.14  6.72  14  630  30  169
  657.140  0.002   388.536  266062.8   0.2  2.15  6.72  14  630  30  170
  819.468  0.002   484.850  267716.6   0.3  2.27 49.10  14  813  64  117
  843.370  0.038   499.031    1612.7   3.2  2.29 49.10  14  813  64  112
  863.519  0.015   510.986    8234.2   1.2  2.31 49.10  14  813  64  110
  985.358  0.037   583.277    1435.9   5.4  2.24  0.65  10  972  25   94
 1029.350  0.032   609.378    2085.0   4.3  2.50  1.41  12 1013  28  101
 1228.227  0.114   727.377     407.4  13.9  2.75  1.21  13 1214  27   99
 1342.357  0.148   795.094     217.1  20.6  2.35  0.54  10 1335  22   74
 1516.268  0.012   898.280   12099.8   1.4  2.79  2.51  12 1501  51   81
 1538.397  0.046   911.410    1252.9   3.5  2.81  2.51  12 1501  51   84
 1576.550  0.208   934.047     197.6  22.7  3.02  1.21  19 1562  21   81
 1628.839  0.157   965.072     253.5  11.6  2.97  0.96  11 1613  40   80
 1636.045  0.069   969.347     752.3   7.3  2.98  0.96  11 1613  40   80
 1890.959  0.071  1120.594     651.1   8.3  2.87  0.73  11 1874  31   72
 1980.463  0.175  1173.700     277.8  16.9  3.50  0.99  12 1967  22   87
 2089.395  0.224  1238.332     252.1  18.7  3.89  0.77  11 2072  29   98
 2236.076  0.242  1325.362     211.4  13.7  4.01  1.67  18 2218  43   84
 2248.623  0.144  1332.806     368.6  11.4  4.03  1.67  18 2218  43   82
 2324.807  0.188  1378.009     244.8  16.4  3.95  1.35  18 2312  23   78
 2464.924  0.017  1461.144    8136.3   1.7  3.37  1.45  10 2448  24   63
 2918.400  0.218  1730.204     110.6  21.7  3.43  1.11  15 2900  28   45
 2976.606  0.068  1764.739     649.1   6.4  3.60  0.49  10 2956  38   26
 3097.283  0.020  1836.340    7112.4   1.7  3.82  1.47  10 3078  36   34
 3547.772  0.221  2103.627     227.6  12.8  6.09  0.91  15 3524  41   46
 3717.333  0.141  2204.233     199.5  12.8  3.78  0.57  14 3699  27   31
 4409.020  0.049  2614.630    1545.2   3.8  4.48  0.59  11 4385  45   27
 4610.585  0.215  2734.224      95.2  16.4  4.32  0.23  12 4587  79   20
 4644.235  0.609  2754.190      19.5  30.0  4.35  0.23  12 4587  79   20
 4935.159  0.152  2926.802      80.5  18.0  2.84  0.28  16 4910  48   13
