

Sample:                                                                 
Filename: D:\Work\Deimos\Au_d1_p5.chn
File created or changed:   17-Nov-18
No.of channels: 16100
Measurement date: 08/Nov/18     12:14
Evaluated : 21-Jan-19 14:03:24
Live time: 3760.0 s   Real time: 3788.0 s    Dead time:  0.67 %
Counts total:   1417294    Input counts/sec:    138
            Satellite peaks:
s10: 0.000  s11: 0.000  s12: 0.000
d10:   2.5  d11:   4.0  d12:  10.0
s20: 0.000  s21: 0.000  s22: 0.000
d20:   0.0  d21:   0.0  d22:   0.0
base: 0.00000

            ENERGY CALIBRATION
-6.548950014724E-0001  6.617873764445E-0001  0.000000000000E+0000  0.000000000000E+0000

            FWHM CALIBRATION
 3.413434905533E+0000  3.589750066975E-0004  0.000000000000E+0000

Energy: preliminary linear calibration
FWHM: preliminary linear calibration

  channel  cherr    energy      area aerr%  fwhm chisq it left   n  lim isotope
==============================================================================
  224.327  0.015   147.802   31155.5   1.1  4.21  3.11  28  212  27  365
  255.504  0.065   168.435    7590.8   4.4  4.87  3.74  12  238  35  673
  285.491  0.014   188.280   37608.2   1.1  4.24  2.39  11  268  35  713
  432.484  0.069   285.558    3724.7   3.5  4.34  2.45  21  424  40  454
  444.731  0.016   293.662   23954.7   1.2  4.35  2.45  21  424  40  437
  455.631  0.122   300.876    1895.3   6.0  4.35  2.45  21  424  40  437
  479.244  0.097   316.503    2256.7   4.3  4.23 16.20  24  461  57  400
  497.607  0.006   328.655  131291.7   0.4  4.23 16.20  24  461  57  390
  504.545  0.016   333.247   27483.0   0.8  4.23 16.20  24  461  57  378
  538.730  0.006   355.870  104824.9   0.5  4.22 22.43  13  517  53  345
  552.653  0.067   365.084    2810.4   3.1  4.22 22.43  13  517  53  322
  597.670  0.191   394.876    1127.9  12.1  5.22  1.07  10  577  33  346
  623.524  0.006   411.985  111583.2   0.5  4.25 33.91   9  604  29  277
  644.898  0.033   426.130    6588.9   2.5  4.35  5.68  12  629  36  258
  730.807  0.079   482.984    1822.8   5.9  4.42  0.76  11  712  33  215
  773.384  0.041   511.161    6200.5   2.3  5.41  0.98  11  752  67  262
  800.800  0.061   529.304    3277.7   2.8  5.42  0.98  11  752  67  246
  882.465  0.162   583.349     683.2   7.2  4.45  0.55  28  864 131  190
  891.960  0.339   589.633     324.2  13.3  4.45  0.55  28  864 131  190
  898.437  0.204   593.919     559.2   8.3  4.46  0.55  28  864 131  190
  921.343  0.098   609.078    1245.7   4.5  4.47  0.55  28  864 131  183
  940.891  0.047   622.015    3243.8   2.9  4.47  0.55  28  864 131  178
  976.309  0.055   645.454    2561.7   3.1  4.48  0.55  28  864 131  177
 1022.513  0.155   676.031     725.5   8.7  4.64  0.74  11 1002  79  181
 1042.043  0.164   688.956     671.9   8.8  4.65  0.74  11 1002  79  185
 1063.968  0.214   703.466     490.1  10.4  4.65  0.74  11 1002  79  178
 1377.642  0.214   911.051     512.7  14.1  4.96  0.60  13 1358  36  172
 1419.273  0.103   938.602    1126.6   5.4  4.71  0.83  10 1403  47  164
 1433.858  0.066   948.254    2062.3   4.3  4.71  0.83  10 1403  47  169
 1464.346  0.310   968.431     312.6  20.9  4.82  0.69  14 1445  39  163
 1569.928  0.247  1038.303     310.5  12.8  4.33  0.93  12 1550  52  134
 1585.429  0.122  1048.562     726.9   8.8  4.34  0.93  12 1550  52  136
 1669.282  0.071  1104.055    1661.6   5.1  4.57  1.67  11 1652  35  142
 1693.960  0.272  1120.387     373.3  17.0  5.20  0.90  10 1674  37  166
 1739.859  0.100  1150.762    1154.1   6.2  4.90  0.72  21 1730  28  142
 1748.303  0.219  1156.350     452.4  10.0  4.90  0.72  21 1730  28  142
 1774.662  0.043  1173.794    5625.7   2.3  6.12  1.29  12 1756  48  184
 1789.988  0.217  1183.937     585.6   7.7  6.12  1.29  12 1756  48  185
 1842.638  0.119  1218.780     878.6   7.9  4.82  0.57  10 1823  39  141
 1954.529  0.544  1292.828     168.6  24.6  5.73  0.62  16 1933  44  148
 1969.150  0.327  1302.504     294.1  20.5  5.74  0.62  16 1933  44  148
 2014.544  0.043  1332.545    3566.2   2.8  5.02  0.95  11 1994  53  123
 2028.933  0.101  1342.067    1022.7   4.4  5.03  0.95  11 1994  53  126
 2149.649  0.283  1421.956     221.3  20.3  4.74  0.44  10 2130  29  102
 2208.826  0.038  1461.118    4520.2   2.0  5.17  2.05  12 2196  46  109
 2220.923  0.036  1469.124    4755.6   2.0  5.17  2.05  12 2196  46  114
 2410.674  0.088  1594.698    2443.5   3.7  7.89  1.85  12 2389  39  152
 2467.936  0.283  1632.594     164.0  22.5  4.12  1.33  16 2448  42   79
 2593.132  0.148  1715.447     424.4  10.1  4.81  0.70  11 2572  38   76
 2667.173  0.203  1764.446     329.1  12.1  5.46  0.62  13 2646  34   79
 2699.106  0.216  1785.579     228.0  11.6  4.53  1.37  11 2679  52   68
 2717.044  0.144  1797.450     399.0   9.6  4.54  1.37  11 2679  52   76
 2765.475  0.276  1829.502     174.9  12.9  5.09  0.87  11 2744  43   77
 2774.528  0.198  1835.493     253.6  11.2  5.10  0.87  11 2744  43   77
 2851.536  0.060  1886.456    1971.5   3.6  5.71  0.47   9 2830  39   71
 2908.269  0.071  1924.001    1258.1   4.7  5.21  1.40  10 2890  28   64
 2977.524  0.170  1969.833     259.1  11.2  4.90  0.85  11 2963  28   42
 3088.834  0.054  2043.496    2037.6   3.4  5.41  0.99  10 3063  43   42
 3179.632  0.405  2103.585     103.9  15.6  6.43  1.04  50 3159  54   45
 3195.193  0.274  2113.884     157.8  14.0  6.44  1.04  50 3159  54   45
 3331.231  0.296  2203.912     128.0  14.2  5.76  0.63  12 3310  58   36
 3348.391  0.298  2215.268     116.2  14.7  5.76  0.63  12 3310  58   36
 3951.871  0.095  2614.643     720.7   5.6  5.70  0.60  12 3929  44   33
