

Sample:                                                                 
Filename: C:\Users\Dusan\Desktop\Deimos\\152Eu_2014.CHN
File created or changed:   06.08.2019
No.of channels: 16100
Measurement date: 28/MAR/19     12:36
Evaluated : 08.08.2019 14:24:01
Live time:  1705.0 s   Real time:  1800.0 s    Dead time:  5.28 %
Counts total:   6945921    Input counts/sec:   4074
            Satellite peaks:
s10: 0.000  s11: 0.000  s12: 0.000
d10:   2.5  d11:   4.0  d12:  10.0
s20: 0.000  s21: 0.000  s22: 0.000
d20:   0.0  d21:   0.0  d22:   0.0
base: 0.00000

            ENERGY CALIBRATION
 2.774682870882E+0001  1.964252314192E-0001  0.000000000000E+0000  0.000000000000E+0000

            FWHM CALIBRATION
 6.598728484701E+0000  9.606801095889E-0004  0.000000000000E+0000

Energy: preliminary linear calibration
FWHM: preliminary linear calibration

  channel  cherr    energy      area aerr%  fwhm chisq it left   n  lim isotope
==============================================================================
  478.842  0.005   121.803  957299.5   0.2 10.52 27.86  15  449  57 1983
 1106.015  0.014   244.996  158011.0   0.4 10.84  2.49  15 1076  60 1277
 1367.177  0.130   296.295    7035.5   4.1 10.48  1.13  17 1337  62  999
 1613.228  0.008   344.625  417943.3   0.2 11.24  8.40   7 1583  61 1259
 1724.818  0.402   366.545    6059.7  13.0 11.41  0.83  53 1700  57  987
 1732.520  0.297   368.058   11690.5   5.7 11.42  0.83  53 1700  57  988
 1954.151  0.046   411.591   25464.8   1.3 11.52  1.28  13 1922  81  891
 1979.743  0.533   416.618    1433.6   9.7 11.54  1.28  13 1922  81  918
 2121.682  0.038   444.499   34166.3   1.1 11.56  1.02  26 2089  56  879
 2349.229  0.216   489.195    3768.1   6.8 11.20  1.14  41 2333  46  855
 2424.784  0.434   504.036    1540.0  13.5 10.60  0.57  19 2392  63  787
 2733.686  0.338   564.712    5061.9   7.5 12.46  1.14 137 2701  73  951
 2745.361  0.953   567.005    2080.1  13.6 12.47  1.14 137 2701  73  971
 2765.398  1.710   570.941     571.9  59.6 12.49  1.14 137 2701  73  954
 2845.718  0.242   586.718    3709.2   6.6 12.28  0.88  16 2807  63  930
 3297.196  0.911   675.399     842.0  14.1 12.16  1.22  36 3259 137  838
 3316.617  0.283   679.214    2842.3   5.0 12.18  1.22  36 3259 137  864
 3367.880  0.133   689.283    6548.5   3.4 12.23  1.22  36 3259 137  884
 3826.878  0.024   779.442   81357.8   0.6 13.18  1.21  20 3789  74 1016
 3987.919  0.340   811.075    2300.1   8.8 12.70  0.99  19 3952  75  817
 4277.654  0.058   867.986   22532.5   1.4 13.82  1.01  18 4238  77  890
 4541.436  0.325   919.800    2512.7   6.9 14.45  0.76  42 4503 119  778
 4576.895  0.559   926.765    1438.6   9.1 14.49  0.76  42 4503 119  778
 4598.002  1.002   930.910     808.6  15.0 14.51  0.76  42 4503 119  787
 4768.634  0.024   964.427   78239.1   0.6 14.05  1.45  19 4725  79 1066
 4895.818  0.622   989.409     937.4  17.5 12.83  1.16  20 4858  56  577
 4977.661  0.223  1005.485    3105.5   5.4 13.86  0.87  22 4937  71  619
 5387.802  0.034  1086.047   54932.2   0.7 14.61  1.51  18 5343  97  961
 5407.621  0.147  1089.940    8064.5   1.9 14.63  1.51  18 5343  97 1211
 5510.101  0.895  1110.070    3447.6  19.5 14.24  0.99  37 5480 136  626
 5521.273  0.079  1112.264   63198.3   1.1 14.25  0.99  37 5480 136  714
 5575.524  0.220  1122.920    3108.9   3.2 14.30  0.99  37 5480 136  643
 6033.368  0.135  1212.853    5458.2   3.0 14.83  1.04  21 5990  82  563
 6123.213  2.342  1230.500     315.3  27.6 13.99  0.94  17 6095  73  481
 6138.711  0.292  1233.545    2618.4   6.0 14.01  0.94  17 6095  73  481
 6470.433  0.110  1298.703    5958.1   2.6 14.85  0.85  28 6448  63  467
 7010.999  0.970  1404.884    2587.3  23.2 15.75  1.60  33 6975  89  232
 7022.993  0.067  1407.240   76941.1   0.8 15.76  1.60  33 6975  89  596
 7274.326  0.184  1456.608    2099.2   3.8 16.75  1.32  22 7232  83  200
 7637.154  0.119  1527.877    4847.2   2.2 17.67  1.95  74 7586  91  250
